E [keV], efficiency level 00, efficiency level 01, efficiency level 02, efficiency level 03, efficiency level 04, efficiency level 05, efficiency level 06, efficiency level 07, efficiency level 08, efficiency level 09, efficiency level 10, efficiency level 11, efficiency level 12, efficiency level 13, efficiency level 14
0.1, 5.36359e-10, 7.11704e-10, 7.46239e-10, 7.58108e-10, 7.6351e-10, 7.66407e-10, 7.68137e-10, 7.69251e-10, 7.70011e-10, 7.70552e-10, 7.7095e-10, 7.71252e-10, 7.71486e-10, 7.71672e-10, 7.71821e-10
0.104757, 5.83973e-05, 6.6852e-05, 6.83296e-05, 6.8826e-05, 6.905e-05, 6.91697e-05, 6.9241e-05, 6.92869e-05, 6.93181e-05, 6.93403e-05, 6.93567e-05, 6.93691e-05, 6.93787e-05, 6.93863e-05, 6.93924e-05
0.10974, 4.02896e-16, 6.27801e-16, 6.7852e-16, 6.96438e-16, 7.04676e-16, 7.09115e-16, 7.11773e-16, 7.13488e-16, 7.14658e-16, 7.15492e-16, 7.16106e-16, 7.16572e-16, 7.16934e-16, 7.1722e-16, 7.17451e-16
0.114961, 4.89654e-117, 1.98326e-116, 3.15485e-116, 3.77147e-116, 4.10342e-116, 4.29667e-116, 4.41751e-116, 4.49759e-116, 4.55321e-116, 4.59331e-116, 4.62314e-116, 4.64591e-116, 4.66368e-116, 4.6778e-116, 4.68921e-116
0.120429, 5.23866e-168, 2.29423e-167, 4.12823e-167, 5.2638e-167, 5.92167e-167, 6.31926e-167, 6.57325e-167, 6.74382e-167, 6.86332e-167, 6.95003e-167, 7.01482e-167, 7.06445e-167, 7.10326e-167, 7.13417e-167, 7.15918e-167
0.126158, 2.0389e-137, 8.60253e-137, 1.44474e-136, 1.77399e-136, 1.95661e-136, 2.06455e-136, 2.13262e-136, 2.17798e-136, 2.20958e-136, 2.23243e-136, 2.24946e-136, 2.26247e-136, 2.27264e-136, 2.28073e-136, 2.28726e-136
0.13216, 6.49348e-123, 2.66598e-122, 4.3109e-122, 5.19413e-122, 5.67376e-122, 5.95421e-122, 6.13001e-122, 6.2467e-122, 6.32781e-122, 6.38634e-122, 6.42991e-122, 6.46318e-122, 6.48914e-122, 6.50978e-122, 6.52645e-122
0.138447, 3.56243e-113, 1.42876e-112, 2.24771e-112, 2.67303e-112, 2.90068e-112, 3.03283e-112, 3.11533e-112, 3.16995e-112, 3.20785e-112, 3.23517e-112, 3.25549e-112, 3.27099e-112, 3.28308e-112, 3.2927e-112, 3.30046e-112
0.145032, 1.30843e-101, 5.06847e-101, 7.70064e-101, 9.01295e-101, 9.70331e-101, 1.01006e-100, 1.03474e-100, 1.05103e-100, 1.06231e-100, 1.07043e-100, 1.07646e-100, 1.08106e-100, 1.08465e-100, 1.0875e-100, 1.0898e-100
0.151932, 8.80342e-92, 3.28603e-91, 4.83734e-91, 5.58361e-91, 5.97039e-91, 6.19133e-91, 6.328e-91, 6.41798e-91, 6.48019e-91, 6.52491e-91, 6.55811e-91, 6.58341e-91, 6.60312e-91, 6.61877e-91, 6.6314e-91
0.159159, 1.04198e-82, 3.72891e-82, 5.32272e-82, 6.06389e-82, 6.44272e-82, 6.65764e-82, 6.79008e-82, 6.87706e-82, 6.93709e-82, 6.98021e-82, 7.01219e-82, 7.03654e-82, 7.05551e-82, 7.07057e-82, 7.08271e-82
0.16673, 2.50788e-74, 8.55949e-74, 1.18578e-73, 1.33432e-73, 1.40927e-73, 1.45152e-73, 1.47746e-73, 1.49446e-73, 1.50617e-73, 1.51458e-73, 1.52081e-73, 1.52555e-73, 1.52924e-73, 1.53217e-73, 1.53453e-73
0.174662, 9.70298e-67, 3.14517e-66, 4.23546e-66, 4.71214e-66, 4.94981e-66, 5.08302e-66, 5.16454e-66, 5.21786e-66, 5.25456e-66, 5.28086e-66, 5.30034e-66, 5.31516e-66, 5.3267e-66, 5.33585e-66, 5.34323e-66
0.18297, 7.587e-60, 2.32631e-59, 3.05001e-59, 3.35785e-59, 3.50969e-59, 3.59434e-59, 3.64599e-59, 3.67971e-59, 3.70289e-59, 3.71949e-59, 3.73178e-59, 3.74112e-59, 3.74839e-59, 3.75416e-59, 3.7588e-59
0.191674, 1.34504e-53, 3.88792e-53, 4.97099e-53, 5.42018e-53, 5.63955e-53, 5.76127e-53, 5.83534e-53, 5.88361e-53, 5.91676e-53, 5.94048e-53, 5.95803e-53, 5.97137e-53, 5.98175e-53, 5.98997e-53, 5.9966e-53
0.200792, 5.84501e-48, 1.58884e-47, 1.98452e-47, 2.14486e-47, 2.22247e-47, 2.26534e-47, 2.29137e-47, 2.30831e-47, 2.31993e-47, 2.32824e-47, 2.33438e-47, 2.33905e-47, 2.34268e-47, 2.34556e-47, 2.34787e-47
0.210344, 7.19297e-43, 1.83548e-42, 2.24343e-42, 2.40526e-42, 2.48296e-42, 2.52572e-42, 2.55161e-42, 2.56844e-42, 2.57998e-42, 2.58822e-42, 2.59431e-42, 2.59894e-42, 2.60254e-42, 2.60539e-42, 2.60769e-42
0.22035, 2.80573e-38, 6.71485e-38, 8.04452e-38, 8.5619e-38, 8.80847e-38, 8.94366e-38, 9.02539e-38, 9.07844e-38, 9.11477e-38, 9.14072e-38, 9.15989e-38, 9.17445e-38, 9.18576e-38, 9.19473e-38, 9.20195e-38
0.230832, 3.69641e-34, 8.29864e-34, 9.76111e-34, 1.03203e-33, 1.0585e-33, 1.07296e-33, 1.0817e-33, 1.08736e-33, 1.09123e-33, 1.094e-33, 1.09604e-33, 1.09759e-33, 1.09879e-33, 1.09975e-33, 1.10052e-33
0.241813, 1.84757e-30, 3.89456e-30, 4.50464e-30, 4.73421e-30, 4.84224e-30, 4.90111e-30, 4.93659e-30, 4.95956e-30, 4.97527e-30, 4.98649e-30, 4.99477e-30, 5.00105e-30, 5.00593e-30, 5.0098e-30, 5.01291e-30
0.253316, 3.8699e-27, 7.67115e-27, 8.73792e-27, 9.13358e-27, 9.31878e-27, 9.41945e-27, 9.48001e-27, 9.51921e-27, 9.546e-27, 9.5651e-27, 9.57921e-27, 9.58991e-27, 9.59822e-27, 9.60481e-27, 9.61011e-27
0.265367, 3.59774e-24, 6.72241e-24, 7.55159e-24, 7.85516e-24, 7.99657e-24, 8.07326e-24, 8.11934e-24, 8.14913e-24, 8.16949e-24, 8.184e-24, 8.19471e-24, 8.20284e-24, 8.20915e-24, 8.21414e-24, 8.21817e-24
0.27799, 1.61542e-21, 2.8532e-21, 3.16509e-21, 3.27795e-21, 3.33029e-21, 3.35862e-21, 3.37562e-21, 3.38661e-21, 3.39411e-21, 3.39945e-21, 3.4034e-21, 3.40639e-21, 3.40871e-21, 3.41055e-21, 3.41204e-21
0.291214, 3.79373e-19, 6.35327e-19, 6.96809e-19, 7.18825e-19, 7.28997e-19, 7.34491e-19, 7.37785e-19, 7.39912e-19, 7.41364e-19, 7.42399e-19, 7.43162e-19, 7.43741e-19, 7.4419e-19, 7.44546e-19, 7.44833e-19
0.305067, 4.9297e-17, 7.85422e-17, 8.52658e-17, 8.76508e-17, 8.8749e-17, 8.93412e-17, 8.96959e-17, 8.99249e-17, 9.00811e-17, 9.01924e-17, 9.02744e-17, 9.03367e-17, 9.0385e-17, 9.04232e-17, 9.0454e-17
0.319579, 3.73584e-15, 5.68299e-15, 6.1131e-15, 6.2644e-15, 6.33385e-15, 6.37124e-15, 6.39363e-15, 6.40806e-15, 6.41791e-15, 6.42493e-15, 6.4301e-15, 6.43402e-15, 6.43706e-15, 6.43947e-15, 6.44141e-15
0.334782, 1.76208e-13, 2.56827e-13, 2.73998e-13, 2.79993e-13, 2.82737e-13, 2.84213e-13, 2.85096e-13, 2.85665e-13, 2.86053e-13, 2.86329e-13, 2.86533e-13, 2.86688e-13, 2.86807e-13, 2.86902e-13, 2.86979e-13
0.350707, 5.44366e-12, 7.62816e-12, 8.0783e-12, 8.23441e-12, 8.3057e-12, 8.34399e-12, 8.36687e-12, 8.38162e-12, 8.39168e-12, 8.39884e-12, 8.40412e-12, 8.40812e-12, 8.41122e-12, 8.41368e-12, 8.41566e-12
0.367391, 1.13768e-10, 1.53806e-10, 1.61814e-10, 1.64574e-10, 1.65832e-10, 1.66507e-10, 1.6691e-10, 1.6717e-10, 1.67347e-10, 1.67473e-10, 1.67566e-10, 1.67636e-10, 1.67691e-10, 1.67734e-10, 1.67769e-10
0.384868, 1.68713e-09, 2.20766e-09, 2.30901e-09, 2.34376e-09, 2.35957e-09, 2.36804e-09, 2.3731e-09, 2.37636e-09, 2.37858e-09, 2.38016e-09, 2.38132e-09, 2.38221e-09, 2.38289e-09, 2.38343e-09, 2.38387e-09
0.403176, 1.85175e-08, 2.35234e-08, 2.44747e-08, 2.47994e-08, 2.49468e-08, 2.50258e-08, 2.50729e-08, 2.51033e-08, 2.51239e-08, 2.51386e-08, 2.51495e-08, 2.51577e-08, 2.51641e-08, 2.51691e-08, 2.51732e-08
0.422355, 1.5392e-07, 1.9038e-07, 1.97161e-07, 1.99465e-07, 2.0051e-07, 2.01069e-07, 2.01402e-07, 2.01617e-07, 2.01763e-07, 2.01868e-07, 2.01944e-07, 2.02002e-07, 2.02047e-07, 2.02083e-07, 2.02112e-07
0.442447, 1.00099e-06, 1.20876e-06, 1.24666e-06, 1.25949e-06, 1.2653e-06, 1.2684e-06, 1.27026e-06, 1.27145e-06, 1.27226e-06, 1.27284e-06, 1.27327e-06, 1.27359e-06, 1.27384e-06, 1.27404e-06, 1.2742e-06
0.463494, 5.26652e-06, 6.22382e-06, 6.39543e-06, 6.45335e-06, 6.47954e-06, 6.49354e-06, 6.50189e-06, 6.50726e-06, 6.51092e-06, 6.51352e-06, 6.51544e-06, 6.51689e-06, 6.51802e-06, 6.51891e-06, 6.51963e-06
0.485542, 2.2842e-05, 2.64774e-05, 2.71191e-05, 2.73351e-05, 2.74326e-05, 2.74848e-05, 2.75158e-05, 2.75358e-05, 2.75494e-05, 2.75591e-05, 2.75662e-05, 2.75716e-05, 2.75758e-05, 2.75791e-05, 2.75818e-05
0.50864, 8.32888e-05, 9.48958e-05, 9.69168e-05, 9.75951e-05, 9.79012e-05, 9.80647e-05, 9.81622e-05, 9.82248e-05, 9.82675e-05, 9.82978e-05, 9.83202e-05, 9.83371e-05, 9.83503e-05, 9.83607e-05, 9.8369e-05
0.532836, 0.000261422, 0.000293308, 0.000298792, 0.000300629, 0.000301457, 0.000301899, 0.000302163, 0.000302332, 0.000302447, 0.000302529, 0.00030259, 0.000302636, 0.000302671, 0.000302699, 0.000302722
0.558183, 0.000717649, 0.000794228, 0.000807258, 0.000811613, 0.000813575, 0.000814622, 0.000815246, 0.000815647, 0.00081592, 0.000816114, 0.000816257, 0.000816366, 0.00081645, 0.000816516, 0.00081657
0.584736, 0.00174307, 0.00190582, 0.00193325, 0.0019424, 0.00194652, 0.00194872, 0.00195003, 0.00195087, 0.00195144, 0.00195185, 0.00195215, 0.00195238, 0.00195255, 0.00195269, 0.00195281
0.612552, 0.00380949, 0.00412064, 0.00417263, 0.00418995, 0.00419774, 0.0042019, 0.00420437, 0.00420597, 0.00420705, 0.00420782, 0.00420839, 0.00420882, 0.00420915, 0.00420942, 0.00420963
0.641691, 0.00758974, 0.00813174, 0.00822163, 0.00825153, 0.00826498, 0.00827215, 0.00827642, 0.00827917, 0.00828104, 0.00828237, 0.00828334, 0.00828409, 0.00828466, 0.00828512, 0.00828548
0.672216, 0.0138903, 0.0147577, 0.0149006, 0.0149481, 0.0149694, 0.0149808, 0.0149876, 0.014992, 0.0149949, 0.014997, 0.0149986, 0.0149998, 0.0150007, 0.0150014, 0.015002
0.704194, 0.0236147, 0.0249042, 0.0251154, 0.0251855, 0.025217, 0.0252338, 0.0252438, 0.0252502, 0.0252546, 0.0252577, 0.02526, 0.0252617, 0.0252631, 0.0252642, 0.025265
0.737693, 0.0376806, 0.0394787, 0.0397717, 0.0398689, 0.0399125, 0.0399358, 0.0399496, 0.0399585, 0.0399646, 0.0399689, 0.0399721, 0.0399745, 0.0399763, 0.0399778, 0.039979
0.772785, 0.0567501, 0.0591167, 0.0595007, 0.0596279, 0.059685, 0.0597155, 0.0597336, 0.0597452, 0.0597532, 0.0597588, 0.0597629, 0.0597661, 0.0597685, 0.0597705, 0.059772
0.809546, 0.0812139, 0.0841741, 0.0846525, 0.0848108, 0.084882, 0.0849198, 0.0849424, 0.0849569, 0.0849668, 0.0849738, 0.0849789, 0.0849828, 0.0849859, 0.0849883, 0.0849902
0.848057, 0.111265, 0.114808, 0.115379, 0.115568, 0.115653, 0.115698, 0.115725, 0.115742, 0.115754, 0.115762, 0.115768, 0.115773, 0.115776, 0.115779, 0.115782
0.888399, 0.146641, 0.15072, 0.151375, 0.151591, 0.151688, 0.15174, 0.151771, 0.151791, 0.151804, 0.151814, 0.151821, 0.151826, 0.15183, 0.151834, 0.151836
0.93066, 0.186625, 0.19116, 0.191886, 0.192126, 0.192234, 0.192291, 0.192326, 0.192348, 0.192362, 0.192373, 0.192381, 0.192387, 0.192391, 0.192395, 0.192398
0.974932, 0.230373, 0.235266, 0.236048, 0.236306, 0.236422, 0.236484, 0.23652, 0.236544, 0.23656, 0.236571, 0.23658, 0.236586, 0.236591, 0.236595, 0.236598
1.02131, 0.277994, 0.283139, 0.28396, 0.28423, 0.284352, 0.284417, 0.284455, 0.28448, 0.284497, 0.284509, 0.284518, 0.284524, 0.284529, 0.284534, 0.284537
1.06989, 0.328763, 0.334048, 0.334889, 0.335166, 0.335291, 0.335357, 0.335397, 0.335422, 0.335439, 0.335452, 0.335461, 0.335467, 0.335473, 0.335477, 0.33548
1.12079, 0.380069, 0.385379, 0.386223, 0.386501, 0.386626, 0.386693, 0.386732, 0.386758, 0.386775, 0.386787, 0.386796, 0.386803, 0.386809, 0.386813, 0.386816
1.17411, 0.431214, 0.436451, 0.437281, 0.437555, 0.437678, 0.437744, 0.437783, 0.437808, 0.437825, 0.437837, 0.437846, 0.437853, 0.437858, 0.437862, 0.437865
1.22996, 0.481182, 0.486261, 0.487066, 0.487332, 0.487451, 0.487514, 0.487552, 0.487576, 0.487592, 0.487604, 0.487613, 0.487619, 0.487624, 0.487628, 0.487632
1.28847, 0.529251, 0.534109, 0.534878, 0.535132, 0.535245, 0.535306, 0.535342, 0.535365, 0.535381, 0.535392, 0.5354, 0.535406, 0.535411, 0.535415, 0.535418
1.34976, 0.575024, 0.579613, 0.580338, 0.580577, 0.580685, 0.580742, 0.580776, 0.580798, 0.580813, 0.580823, 0.580831, 0.580837, 0.580841, 0.580845, 0.580848
1.41397, 0.618006, 0.622294, 0.622971, 0.623195, 0.623295, 0.623348, 0.62338, 0.6234, 0.623414, 0.623424, 0.623431, 0.623437, 0.623441, 0.623445, 0.623447
1.48123, 0.657903, 0.661874, 0.662501, 0.662708, 0.6628, 0.66285, 0.662879, 0.662898, 0.662911, 0.66292, 0.662927, 0.662932, 0.662936, 0.662939, 0.662941
1.55169, 0.694708, 0.698355, 0.698931, 0.69912, 0.699205, 0.699251, 0.699278, 0.699295, 0.699307, 0.699315, 0.699321, 0.699326, 0.699329, 0.699332, 0.699335
1.62551, 0.728516, 0.731841, 0.732366, 0.732539, 0.732616, 0.732657, 0.732682, 0.732698, 0.732709, 0.732716, 0.732722, 0.732726, 0.732729, 0.732732, 0.732734
1.70283, 0.759035, 0.76205, 0.762525, 0.762682, 0.762752, 0.762789, 0.762812, 0.762826, 0.762836, 0.762843, 0.762848, 0.762852, 0.762855, 0.762857, 0.762859
1.78384, 0.786121, 0.788846, 0.789276, 0.789417, 0.789481, 0.789515, 0.789535, 0.789548, 0.789556, 0.789563, 0.789567, 0.789571, 0.789573, 0.789576, 0.789577
1.8687, 0.718321, 0.721746, 0.722286, 0.722464, 0.722544, 0.722586, 0.722611, 0.722628, 0.722639, 0.722647, 0.722652, 0.722657, 0.72266, 0.722663, 0.722665
1.95759, 0.753676, 0.756747, 0.757232, 0.757391, 0.757463, 0.757501, 0.757523, 0.757538, 0.757548, 0.757555, 0.75756, 0.757564, 0.757567, 0.75757, 0.757571
2.05071, 0.780655, 0.78344, 0.783879, 0.784023, 0.784088, 0.784123, 0.784143, 0.784157, 0.784165, 0.784172, 0.784177, 0.78418, 0.784183, 0.784185, 0.784187
2.14827, 0.809144, 0.811613, 0.812002, 0.81213, 0.812187, 0.812218, 0.812236, 0.812248, 0.812256, 0.812261, 0.812265, 0.812269, 0.812271, 0.812273, 0.812275
2.25046, 0.829726, 0.831957, 0.832308, 0.832424, 0.832476, 0.832504, 0.83252, 0.832531, 0.832538, 0.832543, 0.832547, 0.83255, 0.832552, 0.832554, 0.832555
2.35751, 0.849876, 0.851867, 0.85218, 0.852284, 0.85233, 0.852355, 0.852369, 0.852379, 0.852385, 0.85239, 0.852393, 0.852396, 0.852398, 0.852399, 0.8524
2.46966, 0.867654, 0.869428, 0.869707, 0.869799, 0.86984, 0.869862, 0.869875, 0.869883, 0.869889, 0.869893, 0.869896, 0.869898, 0.8699, 0.869902, 0.869903
2.58714, 0.883245, 0.884825, 0.885073, 0.885155, 0.885192, 0.885211, 0.885223, 0.88523, 0.885235, 0.885239, 0.885242, 0.885244, 0.885245, 0.885247, 0.885248
2.71021, 0.897097, 0.8985, 0.89872, 0.898793, 0.898826, 0.898843, 0.898853, 0.89886, 0.898865, 0.898868, 0.89887, 0.898872, 0.898873, 0.898874, 0.898875
2.83914, 0.909348, 0.910592, 0.910788, 0.910852, 0.910881, 0.910897, 0.910906, 0.910912, 0.910916, 0.910919, 0.910921, 0.910922, 0.910924, 0.910925, 0.910925
2.9742, 0.920295, 0.921396, 0.921569, 0.921626, 0.921652, 0.921665, 0.921673, 0.921678, 0.921682, 0.921685, 0.921686, 0.921688, 0.921689, 0.92169, 0.92169
3.11568, 0.930075, 0.931046, 0.931199, 0.931249, 0.931271, 0.931283, 0.931291, 0.931295, 0.931298, 0.931301, 0.931302, 0.931303, 0.931304, 0.931305, 0.931306
3.2639, 0.938766, 0.93962, 0.939754, 0.939798, 0.939818, 0.939829, 0.939835, 0.939839, 0.939842, 0.939844, 0.939845, 0.939846, 0.939847, 0.939848, 0.939848
3.41916, 0.946413, 0.947163, 0.947281, 0.94732, 0.947337, 0.947347, 0.947352, 0.947356, 0.947358, 0.94736, 0.947361, 0.947362, 0.947363, 0.947363, 0.947364
3.58181, 0.953099, 0.953758, 0.953862, 0.953896, 0.953911, 0.953919, 0.953924, 0.953927, 0.953929, 0.953931, 0.953932, 0.953933, 0.953934, 0.953934, 0.953935
3.7522, 0.958994, 0.959572, 0.959663, 0.959693, 0.959707, 0.959714, 0.959718, 0.959721, 0.959723, 0.959724, 0.959725, 0.959726, 0.959726, 0.959727, 0.959727
3.93069, 0.9642, 0.964706, 0.964786, 0.964812, 0.964824, 0.96483, 0.964834, 0.964836, 0.964838, 0.964839, 0.96484, 0.96484, 0.964841, 0.964841, 0.964841
4.11767, 0.968762, 0.969204, 0.969274, 0.969297, 0.969307, 0.969312, 0.969316, 0.969318, 0.969319, 0.96932, 0.969321, 0.969322, 0.969322, 0.969322, 0.969323
4.31355, 0.972723, 0.97311, 0.973171, 0.973191, 0.9732, 0.973205, 0.973208, 0.97321, 0.973211, 0.973212, 0.973212, 0.973213, 0.973213, 0.973214, 0.973214
4.51875, 0.976181, 0.976519, 0.976573, 0.97659, 0.976598, 0.976602, 0.976605, 0.976606, 0.976607, 0.976608, 0.976609, 0.976609, 0.976609, 0.97661, 0.97661
4.73371, 0.979199, 0.979495, 0.979542, 0.979557, 0.979564, 0.979568, 0.97957, 0.979571, 0.979572, 0.979573, 0.979574, 0.979574, 0.979574, 0.979574, 0.979575
4.95889, 0.981821, 0.98208, 0.982121, 0.982134, 0.98214, 0.982143, 0.982145, 0.982146, 0.982147, 0.982148, 0.982148, 0.982149, 0.982149, 0.982149, 0.982149
5.19479, 0.984105, 0.984332, 0.984368, 0.98438, 0.984385, 0.984388, 0.984389, 0.98439, 0.984391, 0.984392, 0.984392, 0.984392, 0.984392, 0.984393, 0.984393
5.4419, 0.9861, 0.986299, 0.98633, 0.98634, 0.986345, 0.986347, 0.986349, 0.98635, 0.98635, 0.986351, 0.986351, 0.986351, 0.986351, 0.986352, 0.986352
5.70078, 0.987832, 0.988006, 0.988034, 0.988043, 0.988047, 0.988049, 0.98805, 0.988051, 0.988052, 0.988052, 0.988052, 0.988053, 0.988053, 0.988053, 0.988053
5.97196, 0.98934, 0.989492, 0.989516, 0.989524, 0.989528, 0.98953, 0.989531, 0.989532, 0.989532, 0.989532, 0.989533, 0.989533, 0.989533, 0.989533, 0.989533
6.25605, 0.990654, 0.990788, 0.990809, 0.990816, 0.990819, 0.99082, 0.990821, 0.990822, 0.990822, 0.990823, 0.990823, 0.990823, 0.990823, 0.990823, 0.990823
6.55365, 0.991792, 0.991909, 0.991927, 0.991933, 0.991936, 0.991937, 0.991938, 0.991938, 0.991939, 0.991939, 0.991939, 0.991939, 0.99194, 0.99194, 0.99194
6.86541, 0.992763, 0.992861, 0.992877, 0.992882, 0.992884, 0.992885, 0.992886, 0.992886, 0.992887, 0.992887, 0.992887, 0.992887, 0.992887, 0.992887, 0.992887
7.192, 0.99355, 0.993625, 0.993637, 0.993641, 0.993642, 0.993643, 0.993644, 0.993644, 0.993644, 0.993645, 0.993645, 0.993645, 0.993645, 0.993645, 0.993645
7.53413, 0.994076, 0.994116, 0.994121, 0.994123, 0.994124, 0.994124, 0.994125, 0.994125, 0.994125, 0.994125, 0.994125, 0.994125, 0.994125, 0.994125, 0.994125
7.89253, 0.99417, 0.994147, 0.994142, 0.994141, 0.99414, 0.994139, 0.994139, 0.994139, 0.994139, 0.994139, 0.994139, 0.994139, 0.994139, 0.994139, 0.994139
8.26798, 0.993487, 0.993354, 0.993331, 0.993323, 0.993319, 0.993317, 0.993316, 0.993316, 0.993315, 0.993315, 0.993315, 0.993314, 0.993314, 0.993314, 0.993314
8.66129, 0.991465, 0.991151, 0.991098, 0.991081, 0.991073, 0.991068, 0.991066, 0.991064, 0.991063, 0.991062, 0.991062, 0.991061, 0.991061, 0.991061, 0.991061
9.07331, 0.987342, 0.986756, 0.986659, 0.986627, 0.986612, 0.986604, 0.9866, 0.986597, 0.986595, 0.986593, 0.986592, 0.986591, 0.986591, 0.98659, 0.98659
9.50493, 0.98, 0.979032, 0.978873, 0.97882, 0.978796, 0.978783, 0.978776, 0.978771, 0.978767, 0.978765, 0.978763, 0.978762, 0.978761, 0.97876, 0.97876
9.95708, 0.968449, 0.966995, 0.966758, 0.966679, 0.966643, 0.966624, 0.966613, 0.966606, 0.966601, 0.966597, 0.966595, 0.966593, 0.966591, 0.96659, 0.966589
10.4307, 0.951943, 0.949925, 0.949597, 0.949488, 0.949439, 0.949413, 0.949398, 0.949388, 0.949381, 0.949376, 0.949373, 0.94937, 0.949368, 0.949366, 0.949365
10.9269, 0.929834, 0.927207, 0.926781, 0.92664, 0.926577, 0.926543, 0.926523, 0.92651, 0.926502, 0.926495, 0.926491, 0.926487, 0.926485, 0.926482, 0.926481
11.4467, 0.901832, 0.89859, 0.898066, 0.897893, 0.897816, 0.897774, 0.89775, 0.897734, 0.897723, 0.897715, 0.89771, 0.897705, 0.897702, 0.897699, 0.897697
11.9912, 0.868118, 0.864295, 0.86368, 0.863477, 0.863385, 0.863337, 0.863308, 0.863289, 0.863276, 0.863267, 0.863261, 0.863256, 0.863252, 0.863249, 0.863246
12.5617, 0.829336, 0.825005, 0.824311, 0.824081, 0.823978, 0.823923, 0.82389, 0.823869, 0.823855, 0.823845, 0.823838, 0.823832, 0.823828, 0.823824, 0.823821
13.1592, 0.786207, 0.781465, 0.780707, 0.780456, 0.780344, 0.780284, 0.780248, 0.780225, 0.78021, 0.780199, 0.78019, 0.780184, 0.780179, 0.780176, 0.780173
13.7852, 0.739695, 0.734653, 0.733848, 0.733583, 0.733463, 0.7334, 0.733362, 0.733338, 0.733321, 0.73331, 0.733301, 0.733294, 0.733289, 0.733285, 0.733282
14.441, 0.691153, 0.685928, 0.685096, 0.684821, 0.684698, 0.684632, 0.684593, 0.684568, 0.684551, 0.684539, 0.68453, 0.684523, 0.684518, 0.684514, 0.684511
15.128, 0.641544, 0.636247, 0.635405, 0.635127, 0.635003, 0.634936, 0.634897, 0.634871, 0.634854, 0.634842, 0.634833, 0.634826, 0.63482, 0.634816, 0.634813
15.8476, 0.591768, 0.586499, 0.585663, 0.585387, 0.585263, 0.585197, 0.585158, 0.585132, 0.585115, 0.585103, 0.585094, 0.585087, 0.585082, 0.585078, 0.585075
16.6015, 0.542958, 0.537803, 0.536986, 0.536716, 0.536595, 0.536531, 0.536493, 0.536468, 0.536451, 0.536439, 0.536431, 0.536424, 0.536419, 0.536415, 0.536411
17.3912, 0.495783, 0.490809, 0.490022, 0.489762, 0.489645, 0.489583, 0.489546, 0.489523, 0.489507, 0.489495, 0.489487, 0.48948, 0.489475, 0.489471, 0.489468
18.2185, 0.450668, 0.445928, 0.445178, 0.44493, 0.44482, 0.44476, 0.444725, 0.444703, 0.444687, 0.444677, 0.444668, 0.444662, 0.444658, 0.444654, 0.444651
19.0852, 0.408126, 0.403655, 0.402948, 0.402715, 0.402611, 0.402555, 0.402522, 0.402501, 0.402486, 0.402476, 0.402468, 0.402463, 0.402458, 0.402455, 0.402452
19.9931, 0.368484, 0.364303, 0.363643, 0.363425, 0.363328, 0.363276, 0.363245, 0.363225, 0.363211, 0.363202, 0.363195, 0.363189, 0.363185, 0.363182, 0.363179
20.9441, 0.331764, 0.327885, 0.327273, 0.327071, 0.32698, 0.326932, 0.326904, 0.326885, 0.326873, 0.326864, 0.326857, 0.326852, 0.326848, 0.326845, 0.326843
21.9404, 0.298001, 0.294425, 0.29386, 0.293674, 0.293591, 0.293547, 0.29352, 0.293503, 0.293492, 0.293483, 0.293477, 0.293473, 0.293469, 0.293466, 0.293464
22.9842, 0.267293, 0.264012, 0.263494, 0.263324, 0.263247, 0.263206, 0.263182, 0.263167, 0.263156, 0.263148, 0.263143, 0.263139, 0.263135, 0.263133, 0.263131
24.0775, 0.239422, 0.236425, 0.235952, 0.235797, 0.235727, 0.23569, 0.235668, 0.235654, 0.235644, 0.235637, 0.235632, 0.235628, 0.235625, 0.235623, 0.235621
25.2229, 0.214248, 0.211521, 0.211091, 0.210949, 0.210886, 0.210852, 0.210832, 0.210819, 0.21081, 0.210804, 0.210799, 0.210796, 0.210793, 0.210791, 0.210789
26.4227, 0.191602, 0.189127, 0.188737, 0.188609, 0.188551, 0.18852, 0.188502, 0.18849, 0.188482, 0.188477, 0.188472, 0.188469, 0.188467, 0.188465, 0.188463
27.6797, 0.170953, 0.168716, 0.168363, 0.168247, 0.168195, 0.168167, 0.168151, 0.16814, 0.168133, 0.168128, 0.168124, 0.168121, 0.168119, 0.168117, 0.168116
28.9964, 0.152405, 0.150387, 0.15007, 0.149965, 0.149918, 0.149893, 0.149878, 0.149869, 0.149862, 0.149858, 0.149854, 0.149852, 0.14985, 0.149848, 0.149847
30.3758, 0.13596, 0.134142, 0.133856, 0.133762, 0.133719, 0.133697, 0.133684, 0.133675, 0.133669, 0.133665, 0.133662, 0.13366, 0.133658, 0.133656, 0.133655
31.8208, 0.121459, 0.119821, 0.119563, 0.119479, 0.119441, 0.11942, 0.119408, 0.1194, 0.119395, 0.119391, 0.119389, 0.119387, 0.119385, 0.119384, 0.119383
33.3345, 0.10864, 0.107165, 0.106932, 0.106856, 0.106822, 0.106803, 0.106793, 0.106786, 0.106781, 0.106777, 0.106775, 0.106773, 0.106772, 0.10677, 0.10677
34.9202, 0.0973317, 0.0960013, 0.095792, 0.095723, 0.0956921, 0.0956757, 0.0956659, 0.0956596, 0.0956553, 0.0956523, 0.09565, 0.0956483, 0.095647, 0.095646, 0.0956451
36.5814, 0.0874084, 0.0862071, 0.0860181, 0.0859558, 0.0859279, 0.085913, 0.0859042, 0.0858985, 0.0858947, 0.0858919, 0.0858899, 0.0858884, 0.0858872, 0.0858862, 0.0858855
38.3216, 0.078695, 0.0776081, 0.0774372, 0.0773809, 0.0773556, 0.0773422, 0.0773342, 0.077329, 0.0773256, 0.0773231, 0.0773212, 0.0773199, 0.0773188, 0.0773179, 0.0773172
40.1445, 0.0709514, 0.0699674, 0.0698126, 0.0697617, 0.0697388, 0.0697266, 0.0697194, 0.0697147, 0.0697116, 0.0697093, 0.0697077, 0.0697064, 0.0697054, 0.0697047, 0.0697041
42.0542, 0.0640935, 0.0632013, 0.0630609, 0.0630147, 0.062994, 0.062983, 0.0629764, 0.0629722, 0.0629693, 0.0629673, 0.0629658, 0.0629646, 0.0629638, 0.0629631, 0.0629625
44.0547, 0.0581112, 0.0572997, 0.057172, 0.05713, 0.0571111, 0.0571011, 0.0570951, 0.0570913, 0.0570887, 0.0570868, 0.0570855, 0.0570844, 0.0570836, 0.057083, 0.0570825
46.1504, 0.0528675, 0.0521271, 0.0520107, 0.0519724, 0.0519552, 0.051946, 0.0519406, 0.0519371, 0.0519347, 0.051933, 0.0519318, 0.0519308, 0.0519301, 0.0519295, 0.0519291
48.3458, 0.0482883, 0.0476104, 0.0475038, 0.0474687, 0.047453, 0.0474446, 0.0474396, 0.0474364, 0.0474342, 0.0474327, 0.0474316, 0.0474307, 0.04743, 0.0474295, 0.0474291
50.6456, 0.0442875, 0.0436645, 0.0435665, 0.0435342, 0.0435198, 0.0435121, 0.0435075, 0.0435045, 0.0435025, 0.0435011, 0.0435001, 0.0434993, 0.0434987, 0.0434982, 0.0434978
53.0549, 0.0407765, 0.0402018, 0.0401115, 0.0400817, 0.0400684, 0.0400613, 0.040057, 0.0400543, 0.0400525, 0.0400512, 0.0400502, 0.0400495, 0.0400489, 0.0400484, 0.0400481
55.5787, 0.0376997, 0.0371675, 0.0370839, 0.0370563, 0.0370439, 0.0370374, 0.0370334, 0.0370309, 0.0370292, 0.037028, 0.0370271, 0.0370264, 0.0370259, 0.0370255, 0.0370252
58.2226, 0.0350087, 0.0345138, 0.034436, 0.0344103, 0.0343989, 0.0343927, 0.0343891, 0.0343868, 0.0343852, 0.034384, 0.0343832, 0.0343826, 0.0343821, 0.0343817, 0.0343814
60.9923, 0.0326427, 0.0321807, 0.0321081, 0.0320842, 0.0320734, 0.0320677, 0.0320643, 0.0320622, 0.0320607, 0.0320596, 0.0320588, 0.0320583, 0.0320578, 0.0320574, 0.0320571
63.8937, 0.0305596, 0.0301266, 0.0300585, 0.0300361, 0.0300261, 0.0300207, 0.0300175, 0.0300155, 0.0300141, 0.0300131, 0.0300124, 0.0300118, 0.0300114, 0.0300111, 0.0300108
66.9331, 0.0287317, 0.0283242, 0.0282601, 0.028239, 0.0282296, 0.0282246, 0.0282216, 0.0282196, 0.0282183, 0.0282174, 0.0282167, 0.0282162, 0.0282158, 0.0282155, 0.0282152
70.1171, 0.0271194, 0.0267344, 0.0266739, 0.026654, 0.0266451, 0.0266403, 0.0266375, 0.0266357, 0.0266344, 0.0266336, 0.0266329, 0.0266324, 0.026632, 0.0266317, 0.0266315
73.4526, 0.0256912, 0.0253262, 0.0252689, 0.02525, 0.0252415, 0.025237, 0.0252343, 0.0252326, 0.0252314, 0.0252306, 0.02523, 0.0252295, 0.0252291, 0.0252289, 0.0252286
76.9468, 0.0244285, 0.0240812, 0.0240267, 0.0240087, 0.0240006, 0.0239963, 0.0239938, 0.0239921, 0.023991, 0.0239902, 0.0239897, 0.0239892, 0.0239889, 0.0239886, 0.0239884
80.6072, 0.0233068, 0.0229753, 0.0229232, 0.022906, 0.0228983, 0.0228942, 0.0228918, 0.0228902, 0.0228892, 0.0228884, 0.0228879, 0.0228874, 0.0228871, 0.0228869, 0.0228866
84.4417, 0.022305, 0.0219876, 0.0219378, 0.0219213, 0.021914, 0.02191, 0.0219077, 0.0219062, 0.0219052, 0.0219045, 0.0219039, 0.0219035, 0.0219032, 0.021903, 0.0219028
88.4586, 0.0214098, 0.021105, 0.0210571, 0.0210414, 0.0210343, 0.0210305, 0.0210283, 0.0210268, 0.0210259, 0.0210252, 0.0210247, 0.0210243, 0.021024, 0.0210237, 0.0210235
92.6666, 0.0206077, 0.0203142, 0.0202681, 0.0202529, 0.0202461, 0.0202425, 0.0202403, 0.0202389, 0.020238, 0.0202373, 0.0202368, 0.0202364, 0.0202361, 0.0202359, 0.0202357
97.0747, 0.0198849, 0.0196016, 0.0195571, 0.0195424, 0.0195359, 0.0195324, 0.0195303, 0.019529, 0.019528, 0.0195274, 0.0195269, 0.0195266, 0.0195263, 0.0195261, 0.0195259
101.693, 0.0192306, 0.0189565, 0.0189134, 0.0188992, 0.0188929, 0.0188895, 0.0188875, 0.0188862, 0.0188853, 0.0188847, 0.0188842, 0.0188839, 0.0188836, 0.0188834, 0.0188832
106.53, 0.0186367, 0.0183711, 0.0183293, 0.0183155, 0.0183094, 0.0183061, 0.0183041, 0.0183029, 0.018302, 0.0183014, 0.018301, 0.0183006, 0.0183004, 0.0183002, 0.0183
111.598, 0.018094, 0.017836, 0.0177954, 0.017782, 0.0177761, 0.0177729, 0.017771, 0.0177697, 0.0177689, 0.0177683, 0.0177679, 0.0177676, 0.0177673, 0.0177671, 0.0177669
116.907, 0.0175952, 0.0173443, 0.0173048, 0.0172918, 0.017286, 0.0172829, 0.017281, 0.0172799, 0.0172791, 0.0172785, 0.0172781, 0.0172777, 0.0172775, 0.0172773, 0.0172771
122.468, 0.0171361, 0.0168916, 0.0168532, 0.0168406, 0.0168349, 0.0168319, 0.0168301, 0.0168289, 0.0168281, 0.0168276, 0.0168272, 0.0168269, 0.0168266, 0.0168264, 0.0168263
128.294, 0.0167102, 0.0164717, 0.0164343, 0.0164219, 0.0164164, 0.0164134, 0.0164117, 0.0164106, 0.0164098, 0.0164093, 0.0164089, 0.0164085, 0.0164083, 0.0164081, 0.016408
134.397, 0.0163133, 0.0160804, 0.0160438, 0.0160318, 0.0160264, 0.0160235, 0.0160218, 0.0160207, 0.0160199, 0.0160194, 0.016019, 0.0160187, 0.0160185, 0.0160183, 0.0160182
140.79, 0.015942, 0.0157144, 0.0156787, 0.0156669, 0.0156616, 0.0156588, 0.0156571, 0.015656, 0.0156553, 0.0156548, 0.0156544, 0.0156541, 0.0156539, 0.0156537, 0.0156536
147.487, 0.0155922, 0.0153696, 0.0153346, 0.015323, 0.0153179, 0.0153151, 0.0153135, 0.0153124, 0.0153117, 0.0153112, 0.0153108, 0.0153106, 0.0153103, 0.0153102, 0.01531
154.503, 0.0152609, 0.0150429, 0.0150087, 0.0149974, 0.0149923, 0.0149896, 0.014988, 0.014987, 0.0149863, 0.0149858, 0.0149855, 0.0149852, 0.014985, 0.0149848, 0.0149847
161.853, 0.0149456, 0.0147321, 0.0146986, 0.0146875, 0.0146826, 0.0146799, 0.0146784, 0.0146773, 0.0146767, 0.0146762, 0.0146758, 0.0146755, 0.0146753, 0.0146752, 0.014675
169.552, 0.0146443, 0.0144351, 0.0144023, 0.0143914, 0.0143866, 0.014384, 0.0143825, 0.0143815, 0.0143808, 0.0143803, 0.01438, 0.0143797, 0.0143795, 0.0143793, 0.0143792
177.618, 0.0143549, 0.0141498, 0.0141175, 0.0141069, 0.0141021, 0.0140996, 0.0140981, 0.0140971, 0.0140965, 0.014096, 0.0140957, 0.0140954, 0.0140952, 0.014095, 0.0140949
186.067, 0.0140766, 0.0138755, 0.0138439, 0.0138335, 0.0138288, 0.0138263, 0.0138248, 0.0138239, 0.0138232, 0.0138228, 0.0138224, 0.0138222, 0.013822, 0.0138218, 0.0138217
194.919, 0.0138087, 0.0136114, 0.0135804, 0.0135701, 0.0135656, 0.0135631, 0.0135617, 0.0135607, 0.0135601, 0.0135597, 0.0135593, 0.0135591, 0.0135589, 0.0135587, 0.0135586
204.191, 0.0135477, 0.0133541, 0.0133236, 0.0133136, 0.0133091, 0.0133067, 0.0133053, 0.0133044, 0.0133038, 0.0133033, 0.013303, 0.0133027, 0.0133026, 0.0133024, 0.0133023
213.904, 0.0132932, 0.0131032, 0.0130733, 0.0130635, 0.0130591, 0.0130567, 0.0130553, 0.0130544, 0.0130538, 0.0130534, 0.013053, 0.0130528, 0.0130526, 0.0130525, 0.0130523
224.08, 0.013045, 0.0128585, 0.0128292, 0.0128196, 0.0128152, 0.0128129, 0.0128116, 0.0128107, 0.0128101, 0.0128096, 0.0128093, 0.0128091, 0.0128089, 0.0128088, 0.0128086
234.739, 0.0128025, 0.0126194, 0.0125906, 0.0125812, 0.0125769, 0.0125747, 0.0125733, 0.0125724, 0.0125719, 0.0125714, 0.0125711, 0.0125709, 0.0125707, 0.0125706, 0.0125705
245.906, 0.0125641, 0.0123844, 0.0123561, 0.0123468, 0.0123427, 0.0123405, 0.0123391, 0.0123383, 0.0123377, 0.0123373, 0.012337, 0.0123368, 0.0123366, 0.0123364, 0.0123363
257.604, 0.0123302, 0.0121539, 0.0121262, 0.012117, 0.0121129, 0.0121108, 0.0121095, 0.0121086, 0.0121081, 0.0121077, 0.0121074, 0.0121071, 0.012107, 0.0121068, 0.0121067
269.858, 0.0121013, 0.0119282, 0.011901, 0.0118921, 0.011888, 0.0118859, 0.0118846, 0.0118838, 0.0118833, 0.0118829, 0.0118826, 0.0118824, 0.0118822, 0.011882, 0.0118819
282.695, 0.0118751, 0.0117052, 0.0116785, 0.0116697, 0.0116657, 0.0116636, 0.0116624, 0.0116616, 0.0116611, 0.0116607, 0.0116604, 0.0116602, 0.01166, 0.0116599, 0.0116598
296.143, 0.0116511, 0.0114844, 0.0114582, 0.0114496, 0.0114457, 0.0114437, 0.0114424, 0.0114417, 0.0114411, 0.0114407, 0.0114405, 0.0114402, 0.0114401, 0.0114399, 0.0114398
310.231, 0.0114301, 0.0112665, 0.0112408, 0.0112324, 0.0112286, 0.0112265, 0.0112253, 0.0112246, 0.011224, 0.0112237, 0.0112234, 0.0112232, 0.011223, 0.0112229, 0.0112228
324.989, 0.0112132, 0.0110527, 0.0110275, 0.0110192, 0.0110154, 0.0110135, 0.0110123, 0.0110115, 0.011011, 0.0110106, 0.0110104, 0.0110102, 0.01101, 0.0110099, 0.0110098
340.448, 0.0109981, 0.0108407, 0.010816, 0.0108078, 0.0108042, 0.0108022, 0.0108011, 0.0108003, 0.0107998, 0.0107995, 0.0107992, 0.010799, 0.0107989, 0.0107987, 0.0107986
356.644, 0.0107848, 0.0106305, 0.0106062, 0.0105982, 0.0105946, 0.0105927, 0.0105916, 0.0105909, 0.0105904, 0.01059, 0.0105898, 0.0105896, 0.0105894, 0.0105893, 0.0105892
373.609, 0.0105744, 0.0104231, 0.0103993, 0.0103914, 0.0103879, 0.010386, 0.0103849, 0.0103842, 0.0103837, 0.0103834, 0.0103831, 0.0103829, 0.0103828, 0.0103827, 0.0103826
391.382, 0.0103662, 0.0102178, 0.0101944, 0.0101868, 0.0101833, 0.0101815, 0.0101804, 0.0101797, 0.0101792, 0.0101789, 0.0101786, 0.0101784, 0.0101783, 0.0101782, 0.0101781
410, 0.0101599, 0.0100145, 0.00999159, 0.00998406, 0.00998068, 0.00997888, 0.00997781, 0.00997713, 0.00997666, 0.00997633, 0.00997608, 0.0099759, 0.00997575, 0.00997564, 0.00997555